Frequency	value	MaxValue	S/N	D1	D2	D3	D4	D0	Ns	PhC	LPFilter	LS	RS	Tx
MHz     	a.u.	a.u.	a.u.	us	us	us	us	ms	scans	1 or 0	Hz	us	us	dB
														
														
30,650	279397,861	231,526	144,451	4,0	8,0	60,0	20,0	1000,0	200,0	1,0	0,0	36,0	55,0	10,3	69
30,600	253505,170	173,226	101,054	4,0	8,0	60,0	20,0	1000,0	200,0	1,0	0,0	36,0	55,0	10,3	70
30,550	138520,350	80,390	68,347	4,0	8,0	60,0	20,0	1000,0	200,0	1,0	0,0	36,0	55,0	10,3	71
30,700	260069,094	202,229	134,850	4,0	8,0	60,0	20,0	1000,0	200,0	1,0	0,0	36,0	55,0	10,3	72
30,750	162087,681	106,947	81,613	4,0	8,0	60,0	20,0	1000,0	200,0	1,0	0,0	36,0	55,0	10,3	73
