Frequency	value	MaxValue	S/N	D1	D2	D3	D4	D0	Ns	PhC	LPFilter	LS	RS	Tx
MHz     	a.u.	a.u.	a.u.	us	us	us	us	ms	scans	1 or 0	Hz	us	us	dB
														
														
30,625	276575,758	235,632	152,186	4,0	8,0	60,0	20,0	2000,0	200,0	1,0	0,0	36,0	55,0	10,3	77
30,675	257807,876	214,448	159,107	4,0	8,0	60,0	20,0	2000,0	200,0	1,0	0,0	36,0	55,0	10,3	78
30,725	163047,993	124,637	63,696	4,0	8,0	60,0	20,0	2000,0	200,0	1,0	0,0	36,0	55,0	10,3	79
30,775	72861,489	52,034	32,698	4,0	8,0	60,0	20,0	2000,0	200,0	1,0	0,0	36,0	55,0	10,3	80
30,825	17654,651	15,492	8,025	4,0	8,0	60,0	20,0	2000,0	200,0	1,0	0,0	36,0	55,0	10,3	81
30,575	253373,075	177,819	110,621	4,0	8,0	60,0	20,0	2000,0	200,0	1,0	0,0	36,0	55,0	10,3	82
30,525	147508,463	84,903	75,872	4,0	8,0	60,0	20,0	2000,0	200,0	1,0	0,0	36,0	55,0	10,3	83
30,475	30351,764	19,776	14,121	4,0	8,0	60,0	20,0	2000,0	200,0	1,0	0,0	36,0	55,0	10,3	84
30,425	9415,160	5,723	3,659	4,0	8,0	60,0	20,0	2000,0	200,0	1,0	0,0	36,0	55,0	10,3	85
