Frequency	value	D1	D2	D3	D4	D0	Ns	PhC	LPFilter	LS	RS	Tx	number
MHz     	a.u.	us	us	us	us	ms	scans	1 or 0	Hz	us	us	dB	  
													
													
30,682	519252,618	4,0	8,0	60,0	20,0	1500,0	300,0	1,0	0,0	34,0	57,0	10,3
30,632	199170,853	4,0	8,0	60,0	20,0	1500,0	300,0	1,0	0,0	34,0	57,0	10,3
30,732	206820,689	4,0	8,0	60,0	20,0	1500,0	300,0	1,0	0,0	34,0	57,0	10,3
